Time [ s]	Intensity
0.00000	851.8
0.00153	836.1
0.00305	796.4
0.00458	826.6
0.00611	814.3
0.00764	817.1
0.00916	802.8
0.01069	811.6
0.01222	844.8
0.01375	816.4
0.01527	807.7
0.01680	798.9
0.01833	808.4
0.01985	799.6
0.02138	818.8
0.02291	796.5
0.02444	780.8
0.02596	796.7
0.02749	782.1
0.02902	815.1
0.03055	781.7
0.03207	774.9
0.03360	792.1
0.03513	774.4
0.03665	802.7
0.03818	811.5
0.03971	779.4
0.04124	763.4
0.04276	795.0
0.04429	792.0
0.04582	792.9
0.04735	778.5
0.04887	773.4
0.05040	774.2
0.05193	771.3
0.05345	781.7
0.05498	780.9
0.05651	785.5
0.05804	772.8
0.05956	774.5
0.06109	779.5
0.06262	765.6
0.06415	775.0
0.06567	762.8
0.06720	771.8
0.06873	759.3
0.07025	781.7
0.07178	777.1
0.07331	749.0
0.07484	779.6
0.07636	757.0
0.07789	775.5
0.07942	766.0
0.08095	776.9
0.08247	754.9
0.08400	747.1
0.08553	767.9
0.08705	730.0
0.08858	761.7
0.09011	783.6
0.09164	761.0
0.09316	789.9
0.09469	763.3
0.09622	774.6
0.09775	761.0
0.09927	726.7
0.10080	782.1
0.10233	763.2
0.10385	765.5
0.10538	768.4
0.10691	768.0
0.10844	768.5
0.10996	759.3
0.11149	752.3
0.11302	761.2
0.11455	754.5
0.11607	738.0
0.11760	763.7
0.11913	756.4
0.12065	757.3
0.12218	766.1
0.12371	736.2
0.12524	772.7
0.12676	760.9
0.12829	774.9
0.12982	767.7
0.13135	755.3
0.13287	753.4
0.13440	746.4
0.13593	740.3
0.13745	763.1
0.13898	750.6
0.14051	756.1
0.14204	751.8
0.14356	748.9
0.14509	759.6
0.14662	745.6
0.14815	749.1
0.14967	752.4
0.15120	738.9
0.15273	745.0
0.15425	732.6
0.15578	732.5
0.15731	737.2
0.15884	732.6
0.16036	718.5
0.16189	738.7
0.16342	744.7
0.16495	739.4
0.16647	746.7
0.16800	720.1
0.16953	740.2
0.17105	745.1
0.17258	742.4
0.17411	732.6
0.17564	708.9
0.17716	743.1
0.17869	746.8
0.18022	724.8
0.18175	734.7
0.18327	746.4
0.18480	716.7
0.18633	727.7
0.18785	750.1
0.18938	731.3
0.19091	732.0
0.19244	738.1
0.19396	746.9
0.19549	748.2
0.19702	735.4
0.19855	746.4
0.20007	728.3
0.20160	718.8
0.20313	719.9
0.20465	733.5
0.20618	756.9
0.20771	720.2
0.20924	728.3
0.21076	725.1
0.21229	729.7
0.21382	721.3
0.21535	711.5
0.21687	732.9
0.21840	736.9
0.21993	737.3
0.22145	709.6
0.22298	721.2
0.22451	739.7
0.22604	717.1
0.22756	736.4
0.22909	732.9
0.23062	744.9
0.23215	743.0
0.23367	713.5
0.23520	742.1
0.23673	711.5
0.23825	721.8
0.23978	729.7
0.24131	733.0
0.24284	738.5
0.24436	736.2
0.24589	706.2
0.24742	708.3
0.24895	714.6
0.25047	743.9
0.25200	723.2
0.25353	717.5
0.25505	725.2
0.25658	710.9
0.25811	714.0
0.25964	721.4
0.26116	728.6
0.26269	702.2
0.26422	724.8
0.26575	715.6
0.26727	730.3
0.26880	726.2
0.27033	726.5
0.27185	729.7
0.27338	736.1
0.27491	738.5
0.27644	727.8
0.27796	720.6
0.27949	729.3
0.28102	738.8
0.28255	755.0
0.28407	712.3
0.28560	721.7
0.28713	724.2
0.28865	714.2
0.29018	713.8
0.29171	730.4
0.29324	740.9
0.29476	721.4
0.29629	708.4
0.29782	739.3
0.29935	715.2
0.30087	705.1
0.30240	728.6
0.30393	719.7
0.30545	726.0
0.30698	731.8
0.30851	713.2
0.31004	726.0
0.31156	717.6
0.31309	721.8
0.31462	707.7
0.31615	725.1
0.31767	710.3
0.31920	704.1
0.32073	709.2
0.32225	726.9
0.32378	721.1
0.32531	705.5
0.32684	714.1
0.32836	688.3
0.32989	703.5
0.33142	720.5
0.33295	697.3
0.33447	722.7
0.33600	713.2
0.33753	714.7
0.33905	700.5
0.34058	714.4
0.34211	711.6
0.34364	713.8
0.34516	713.9
0.34669	706.7
0.34822	711.7
0.34975	716.4
0.35127	703.5
0.35280	706.4
0.35433	702.4
0.35585	690.2
0.35738	715.1
0.35891	716.5
0.36044	707.4
0.36196	711.6
0.36349	696.3
0.36502	702.2
0.36655	695.2
0.36807	690.0
0.36960	706.7
0.37113	730.3
0.37265	705.8
0.37418	700.3
0.37571	711.9
0.37724	695.8
0.37876	722.0
0.38029	708.5
0.38182	684.4
0.38335	704.6
0.38487	709.0
0.38640	684.0
0.38793	709.3
0.38945	711.5
0.39098	700.7
0.39251	692.5
0.39404	712.5
0.39556	712.8
0.39709	714.9
0.39862	707.5
0.40015	709.5
0.40167	729.7
0.40320	705.6
0.40473	693.8
0.40625	717.7
0.40778	699.8
0.40931	707.6
0.41084	697.3
0.41236	701.6
0.41389	688.9
0.41542	705.0
0.41695	715.3
0.41847	704.4
0.42000	696.3
0.42153	705.7
0.42305	704.0
0.42458	673.3
0.42611	682.6
0.42764	697.0
0.42916	693.4
0.43069	702.7
0.43222	708.6
0.43375	709.9
0.43527	701.8
0.43680	706.2
0.43833	712.2
0.43985	697.2
0.44138	707.5
0.44291	700.5
0.44444	692.5
0.44596	720.3
0.44749	679.7
0.44902	684.8
0.45055	671.0
0.45207	709.6
0.45360	700.7
0.45513	696.6
0.45665	690.4
0.45818	690.1
0.45971	701.1
0.46124	687.7
0.46276	683.1
0.46429	709.7
0.46582	717.7
0.46735	707.7
0.46887	701.1
0.47040	708.7
0.47193	694.1
0.47345	689.6
0.47498	706.6
0.47651	695.2
0.47804	705.3
0.47956	702.0
0.48109	690.3
0.48262	683.1
0.48415	704.4
0.48567	685.7
0.48720	693.7
0.48873	692.2
0.49025	713.1
0.49178	693.5
0.49331	685.1
0.49484	681.4
0.49636	703.5
0.49789	708.3
0.49942	694.0
0.50095	707.0
0.50247	704.2
0.50400	686.0
0.50553	689.2
0.50705	703.2
0.50858	679.3
0.51011	704.2
0.51164	692.3
0.51316	693.7
0.51469	698.1
0.51622	678.6
0.51775	691.8
0.51927	694.3
0.52080	685.1
0.52233	679.4
0.52385	692.9
0.52538	684.4
0.52691	697.9
0.52844	686.3
0.52996	711.8
0.53149	681.7
0.53302	707.7
0.53455	702.1
0.53607	701.5
0.53760	703.2
0.53913	676.6
0.54065	698.3
0.54218	687.8
0.54371	680.0
0.54524	688.5
0.54676	687.2
0.54829	702.3
0.54982	705.7
0.55135	686.7
0.55287	680.4
0.55440	686.0
0.55593	681.3
0.55745	687.4
0.55898	703.8
0.56051	684.6
0.56204	703.4
0.56356	679.8
0.56509	687.5
0.56662	684.4
0.56815	694.9
0.56967	719.5
0.57120	698.9
0.57273	673.1
0.57425	683.3
0.57578	681.0
0.57731	672.2
0.57884	709.5
0.58036	701.0
0.58189	705.0
0.58342	677.4
0.58495	689.3
0.58647	698.5
0.58800	685.7
0.58953	700.4
0.59105	674.9
0.59258	679.8
0.59411	707.3
0.59564	686.4
0.59716	691.9
0.59869	684.8
0.60022	685.7
0.60175	682.3
0.60327	676.5
0.60480	691.5
0.60633	680.5
0.60785	688.2
0.60938	683.6
0.61091	723.9
0.61244	702.1
0.61396	705.7
0.61549	714.5
0.61702	716.0
0.61855	724.6
0.62007	744.3
0.62160	754.9
0.62313	753.7
0.62465	784.5
0.62618	752.8
0.62771	782.4
0.62924	776.9
0.63076	808.9
0.63229	819.8
0.63382	865.9
0.63535	869.6
0.63687	849.1
0.63840	923.1
0.63993	927.6
0.64145	962.3
0.64298	971.1
0.64451	995.1
0.64604	1008.1
0.64756	1044.0
0.64909	1096.1
0.65062	1138.9
0.65215	1154.7
0.65367	1197.3
0.65520	1223.4
0.65673	1246.7
0.65825	1297.1
0.65978	1338.6
0.66131	1371.2
0.66284	1380.0
0.66436	1397.8
0.66589	1413.9
0.66742	1447.1
0.66895	1491.7
0.67047	1466.2
0.67200	1507.5
0.67353	1491.4
0.67505	1508.6
0.67658	1489.0
0.67811	1526.8
0.67964	1514.3
0.68116	1556.6
0.68269	1539.8
0.68422	1572.9
0.68575	1599.3
0.68727	1576.3
0.68880	1615.3
0.69033	1615.6
0.69185	1619.8
0.69338	1641.2
0.69491	1659.0
0.69644	1623.1
0.69796	1660.0
0.69949	1664.1
0.70102	1648.0
0.70255	1625.0
0.70407	1623.5
0.70560	1659.6
0.70713	1662.9
0.70865	1624.3
0.71018	1609.6
0.71171	1634.4
0.71324	1576.9
0.71476	1684.8
0.71629	1601.1
0.71782	1627.1
0.71935	1612.7
0.72087	1611.3
0.72240	1642.0
0.72393	1632.9
0.72545	1629.8
0.72698	1615.0
0.72851	1631.2
0.73004	1594.5
0.73156	1635.9
0.73309	1597.6
0.73462	1590.8
0.73615	1572.2
0.73767	1531.2
0.73920	1588.6
0.74073	1553.0
0.74225	1564.5
0.74378	1557.7
0.74531	1545.3
0.74684	1566.8
0.74836	1565.1
0.74989	1536.3
0.75142	1531.6
0.75295	1492.3
0.75447	1508.9
0.75600	1521.6
0.75753	1519.2
0.75905	1525.8
0.76058	1473.6
0.76211	1505.3
0.76364	1490.7
0.76516	1470.3
0.76669	1529.3
0.76822	1498.9
0.76975	1533.2
0.77127	1535.7
0.77280	1532.1
0.77433	1466.1
0.77585	1483.2
0.77738	1456.2
0.77891	1462.6
0.78044	1449.8
0.78196	1464.7
0.78349	1435.6
0.78502	1438.8
0.78655	1448.9
0.78807	1407.3
0.78960	1425.5
0.79113	1374.6
0.79265	1415.7
0.79418	1374.3
0.79571	1401.8
0.79724	1386.0
0.79876	1366.0
0.80029	1330.7
0.80182	1325.6
0.80335	1328.4
0.80487	1341.1
0.80640	1332.9
0.80793	1348.7
0.80945	1331.4
0.81098	1324.0
0.81251	1330.2
0.81404	1271.9
0.81556	1315.8
0.81709	1320.0
0.81862	1294.3
0.82015	1319.6
0.82167	1279.5
0.82320	1286.7
0.82473	1281.0
0.82625	1292.4
0.82778	1292.9
0.82931	1267.8
0.83084	1257.1
0.83236	1260.0
0.83389	1297.7
0.83542	1253.8
0.83695	1249.1
0.83847	1250.6
0.84000	1241.1
0.84153	1241.1
0.84305	1237.3
0.84458	1243.3
0.84611	1200.4
0.84764	1215.1
0.84916	1207.1
0.85069	1220.1
0.85222	1178.2
0.85375	1199.3
0.85527	1188.8
0.85680	1179.9
0.85833	1144.9
0.85985	1155.8
0.86138	1180.4
0.86291	1129.7
0.86444	1140.1
0.86596	1151.3
0.86749	1168.6
0.86902	1145.0
0.87055	1135.5
0.87207	1117.8
0.87360	1128.8
0.87513	1124.8
0.87665	1129.0
0.87818	1118.2
0.87971	1105.3
0.88124	1079.9
0.88276	1131.5
0.88429	1079.0
0.88582	1102.2
0.88735	1077.3
0.88887	1069.8
0.89040	1062.1
0.89193	1073.8
0.89345	1086.8
0.89498	1094.2
0.89651	1049.4
0.89804	1065.4
0.89956	1046.4
0.90109	1021.9
0.90262	1041.7
0.90415	1037.2
0.90567	1045.7
0.90720	1040.0
0.90873	1048.8
0.91025	1031.4
0.91178	1048.3
0.91331	1033.8
0.91484	1039.3
0.91636	1004.4
0.91789	1035.2
0.91942	1008.3
0.92095	1018.1
0.92247	1011.4
0.92400	1024.3
0.92553	1003.4
0.92705	976.8
0.92858	1005.4
0.93011	998.1
0.93164	991.8
0.93316	980.7
0.93469	997.5
0.93622	978.8
0.93775	985.3
0.93927	972.0
0.94080	963.7
0.94233	918.0
0.94385	958.9
0.94538	945.0
0.94691	941.6
0.94844	946.0
0.94996	949.2
0.95149	926.1
0.95302	947.6
0.95455	926.2
0.95607	905.3
0.95760	914.5
0.95913	925.5
0.96065	914.4
0.96218	921.8
0.96371	899.8
0.96524	892.4
0.96676	904.9
0.96829	910.2
0.96982	886.2
0.97135	915.9
0.97287	897.8
0.97440	893.4
0.97593	882.2
0.97745	875.5
0.97898	873.8
0.98051	880.4
0.98204	889.3
0.98356	891.5
0.98509	921.6
0.98662	888.8
0.98815	872.2
0.98967	880.8
0.99120	836.6
0.99273	857.2
0.99425	871.6
0.99578	850.6
0.99731	819.8
0.99884	856.3
1.00036	866.9
1.00189	873.3
1.00342	847.7
1.00495	850.5
1.00647	858.3
1.00800	846.0
1.00953	866.5
1.01105	875.0
1.01258	852.1
1.01411	838.2
1.01564	839.8
1.01716	838.9
1.01869	823.7
1.02022	846.7
1.02175	829.6
1.02327	805.8
1.02480	842.2
1.02633	822.8
1.02785	819.9
1.02938	806.3
1.03091	828.2
1.03244	841.5
1.03396	804.0
1.03549	822.0
1.03702	825.5
1.03855	814.3
1.04007	806.6
1.04160	812.0
1.04313	822.7
1.04465	833.9
1.04618	819.7
1.04771	800.9
1.04924	820.3
1.05076	828.1
1.05229	809.3
1.05382	808.9
1.05535	810.1
1.05687	792.9
1.05840	817.2
1.05993	812.2
1.06145	804.0
1.06298	816.3
1.06451	770.6
1.06604	819.0
1.06756	801.8
1.06909	805.2
1.07062	802.0
1.07215	780.9
1.07367	807.8
1.07520	810.1
1.07673	765.7
1.07825	774.4
1.07978	807.6
1.08131	774.3
1.08284	779.1
1.08436	773.6
1.08589	786.4
1.08742	777.3
1.08895	789.0
1.09047	792.8
1.09200	788.8
1.09353	774.1
1.09505	785.7
1.09658	796.8
1.09811	759.2
1.09964	782.2
1.10116	779.1
1.10269	781.5
1.10422	760.4
1.10575	761.4
1.10727	772.4
1.10880	754.9
1.11033	771.9
1.11185	763.5
1.11338	790.0
1.11491	775.1
1.11644	753.4
1.11796	776.1
1.11949	756.6
1.12102	780.1
1.12255	769.8
1.12407	767.1
1.12560	765.5
1.12713	774.7
1.12865	769.8
1.13018	752.5
1.13171	756.9
1.13324	750.6
1.13476	757.1
1.13629	752.1
1.13782	768.5
1.13935	777.6
1.14087	745.0
1.14240	743.8
1.14393	772.3
1.14545	770.8
1.14698	769.4
1.14851	785.5
1.15004	764.5
1.15156	770.6
1.15309	777.2
1.15462	764.4
1.15615	759.2
1.15767	781.8
1.15920	758.8
1.16073	746.6
1.16225	775.5
1.16378	751.2
1.16531	756.7
1.16684	750.0
1.16836	735.1
1.16989	779.2
1.17142	749.1
1.17295	777.2
1.17447	750.3
1.17600	746.9
1.17753	753.8
1.17905	756.2
1.18058	759.2
1.18211	754.9
1.18364	756.7
1.18516	750.2
1.18669	753.4
1.18822	742.0
1.18975	743.9
1.19127	765.3
1.19280	751.0
1.19433	739.9
1.19585	754.0
1.19738	736.1
1.19891	727.4
1.20044	752.3
1.20196	766.1
1.20349	756.3
1.20502	749.4
1.20655	766.9
1.20807	748.3
1.20960	761.5
1.21113	739.8
1.21265	770.0
1.21418	751.0
1.21571	753.2
1.21724	760.4
1.21876	752.4
1.22029	754.3
1.22182	742.2
1.22335	751.0
1.22487	754.8
1.22640	759.3
1.22793	739.8
1.22945	739.7
1.23098	758.8
1.23251	753.7
1.23404	734.0
1.23556	745.5
1.23709	763.7
1.23862	724.2
1.24015	741.5
1.24167	721.8
1.24320	743.2
1.24473	739.3
1.24625	743.4
1.24778	751.3
1.24931	728.6
1.25084	734.1
1.25236	748.1
1.25389	729.3
1.25542	735.8
1.25695	735.2
1.25847	768.5
1.26000	729.8
1.26153	744.2
1.26305	717.1
1.26458	736.3
1.26611	752.3
1.26764	743.6
1.26916	728.4
1.27069	743.0
1.27222	716.1
1.27375	737.0
1.27527	742.9
1.27680	726.0
1.27833	759.8
1.27985	739.8
1.28138	730.8
1.28291	725.4
1.28444	740.4
1.28596	722.1
1.28749	725.5
1.28902	718.9
1.29055	728.8
1.29207	742.0
1.29360	727.3
1.29513	716.3
1.29665	708.5
1.29818	734.6
1.29971	722.3
1.30124	716.9
1.30276	722.6
1.30429	740.6
1.30582	726.0
1.30735	752.1
1.30887	732.8
1.31040	731.1
1.31193	709.2
1.31345	731.5
1.31498	730.3
1.31651	721.5
1.31804	719.0
1.31956	692.9
1.32109	708.2
1.32262	718.7
1.32415	698.7
1.32567	726.5
1.32720	732.1
1.32873	714.0
1.33025	727.9
1.33178	731.9
1.33331	728.5
1.33484	728.8
1.33636	717.2
1.33789	723.8
1.33942	724.2
1.34095	725.3
1.34247	711.0
1.34400	690.1
1.34553	734.9
1.34705	711.3
1.34858	739.5
1.35011	713.5
1.35164	703.8
1.35316	704.1
1.35469	703.5
1.35622	715.7
1.35775	697.9
1.35927	712.1
1.36080	695.4
1.36233	702.5
1.36385	706.0
1.36538	721.2
1.36691	732.1
1.36844	708.9
1.36996	714.1
1.37149	711.1
1.37302	713.4
1.37455	699.1
1.37607	693.1
1.37760	711.6
1.37913	707.0
1.38065	712.8
1.38218	700.9
1.38371	697.2
1.38524	696.6
1.38676	704.8
1.38829	704.5
1.38982	720.5
1.39135	706.6
1.39287	714.4
1.39440	712.5
1.39593	716.4
1.39745	723.7
1.39898	719.6
1.40051	728.8
1.40204	703.6
1.40356	721.4
1.40509	699.0
1.40662	711.1
1.40815	712.1
1.40967	696.9
1.41120	720.2
1.41273	721.1
1.41425	713.6
1.41578	702.0
1.41731	729.4
1.41884	720.1
1.42036	696.6
1.42189	712.9
1.42342	713.4
1.42495	719.8
1.42647	711.7
1.42800	690.4
1.42953	698.0
1.43105	716.3
1.43258	710.9
1.43411	732.1
1.43564	700.4
1.43716	700.3
1.43869	706.7
1.44022	701.6
1.44175	698.9
1.44327	711.3
1.44480	703.7
1.44633	698.9
1.44785	722.0
1.44938	711.6
1.45091	725.3
1.45244	718.4
1.45396	709.8
1.45549	699.1
1.45702	720.3
1.45855	693.0
1.46007	715.8
1.46160	692.3
1.46313	688.2
1.46465	682.4
1.46618	707.4
1.46771	716.7
1.46924	676.6
1.47076	706.3
1.47229	706.5
1.47382	717.9
1.47535	709.3
1.47687	701.8
1.47840	686.4
1.47993	711.8
1.48145	707.4
1.48298	693.9
1.48451	703.1
1.48604	687.0
1.48756	708.3
1.48909	692.9
1.49062	695.7
1.49215	697.3
1.49367	706.4
1.49520	693.4
1.49673	720.7
1.49825	700.1
1.49978	703.2
1.50131	702.1
1.50284	697.9
1.50436	703.6
1.50589	690.1
1.50742	709.6
1.50895	693.6
1.51047	705.3
1.51200	709.6
1.51353	696.9
1.51505	707.3
1.51658	699.7
1.51811	711.2
1.51964	709.9
1.52116	714.2
1.52269	710.5
1.52422	721.7
1.52575	700.6
1.52727	696.3
1.52880	703.5
1.53033	701.5
1.53185	693.9
1.53338	700.8
1.53491	695.1
1.53644	685.9
1.53796	694.7
1.53949	705.4
1.54102	696.3
1.54255	686.8
1.54407	709.5
1.54560	706.2
1.54713	716.5
1.54865	687.8
1.55018	695.3
1.55171	696.3
1.55324	704.3
1.55476	699.5
1.55629	690.9
1.55782	671.8
1.55935	698.8
1.56087	706.2
1.56240	700.2
1.56393	696.7
1.56545	713.2
1.56698	711.8
1.56851	698.0
1.57004	706.0
1.57156	685.8
1.57309	695.0
1.57462	690.2
1.57615	701.8
1.57767	701.8
1.57920	704.9
1.58073	697.4
1.58225	692.2
1.58378	685.0
1.58531	699.4
1.58684	692.1
1.58836	693.6
1.58989	686.0
1.59142	697.4
1.59295	704.2
1.59447	683.4
1.59600	716.3
1.59753	709.8
1.59905	708.6
1.60058	716.4
1.60211	710.5
1.60364	713.6
1.60516	695.2
1.60669	690.3
1.60822	701.1
1.60975	716.0
1.61127	692.6
1.61280	681.7
1.61433	705.0
1.61585	702.3
1.61738	695.8
1.61891	710.8
1.62044	692.9
1.62196	707.9
1.62349	694.1
1.62502	708.5
1.62655	680.1
1.62807	694.0
1.62960	703.9
1.63113	675.7
1.63265	676.1
1.63418	686.8
1.63571	700.1
1.63724	713.0
1.63876	719.3
1.64029	694.6
1.64182	703.3
1.64335	693.1
1.64487	696.7
1.64640	699.0
1.64793	701.5
1.64945	704.8
1.65098	702.1
1.65251	698.7
1.65404	681.9
1.65556	697.2
1.65709	691.6
1.65862	691.6
1.66015	686.2
1.66167	700.8
1.66320	700.9
1.66473	712.0
1.66625	686.3
1.66778	701.7
1.66931	688.3
1.67084	703.0
1.67236	704.6
1.67389	695.1
1.67542	689.8
1.67695	699.3
1.67847	702.7
1.68000	720.3
1.68153	703.8
1.68305	729.9
1.68458	729.5
1.68611	767.6
1.68764	755.2
1.68916	745.5
1.69069	775.7
1.69222	792.5
1.69375	820.3
1.69527	861.5
1.69680	849.4
1.69833	876.6
1.69985	876.4
1.70138	901.9
1.70291	909.8
1.70444	932.9
1.70596	961.2
1.70749	948.2
1.70902	930.2
1.71055	951.5
1.71207	999.4
1.71360	987.4
1.71513	953.5
1.71665	1005.6
1.71818	1050.1
1.71971	1062.9
1.72124	1094.4
1.72276	1119.8
1.72429	1113.4
1.72582	1152.7
1.72735	1153.8
1.72887	1175.3
1.73040	1198.5
1.73193	1232.5
1.73345	1222.1
1.73498	1245.7
1.73651	1234.0
1.73804	1285.4
1.73956	1272.9
1.74109	1291.6
1.74262	1279.4
1.74415	1339.7
1.74567	1351.7
1.74720	1355.6
1.74873	1356.8
1.75025	1405.3
1.75178	1407.7
1.75331	1396.0
1.75484	1422.5
1.75636	1400.0
1.75789	1389.8
1.75942	1435.6
1.76095	1392.5
1.76247	1459.3
1.76400	1445.1
1.76553	1405.8
1.76705	1454.2
1.76858	1482.8
1.77011	1520.3
1.77164	1546.5
1.77316	1537.8
1.77469	1543.7
1.77622	1483.7
1.77775	1525.9
1.77927	1533.9
1.78080	1553.8
1.78233	1511.8
1.78385	1498.6
1.78538	1574.5
1.78691	1542.3
1.78844	1559.0
1.78996	1567.4
1.79149	1519.7
1.79302	1536.4
1.79455	1541.6
1.79607	1546.8
1.79760	1526.2
1.79913	1439.1
1.80065	1538.5
1.80218	1536.1
1.80371	1509.2
1.80524	1476.3
1.80676	1525.6
1.80829	1465.5
1.80982	1482.9
1.81135	1489.1
1.81287	1514.8
1.81440	1495.9
1.81593	1460.1
1.81745	1453.5
1.81898	1466.4
1.82051	1491.0
1.82204	1400.3
1.82356	1432.7
1.82509	1413.8
1.82662	1407.3
1.82815	1411.0
1.82967	1429.6
1.83120	1383.1
1.83273	1414.4
1.83425	1397.4
1.83578	1394.6
1.83731	1386.8
1.83884	1379.8
1.84036	1358.3
1.84189	1366.2
1.84342	1377.4
1.84495	1379.5
1.84647	1389.3
1.84800	1380.0
1.84953	1347.4
1.85105	1375.3
1.85258	1385.1
1.85411	1327.6
1.85564	1332.4
1.85716	1351.3
1.85869	1352.0
1.86022	1335.3
1.86175	1337.8
1.86327	1377.3
1.86480	1307.2
1.86633	1329.5
1.86785	1329.0
1.86938	1303.7
1.87091	1293.8
1.87244	1269.8
1.87396	1249.8
1.87549	1303.8
1.87702	1296.9
1.87855	1263.6
1.88007	1217.4
1.88160	1208.7
1.88313	1244.7
1.88465	1232.4
1.88618	1211.7
1.88771	1224.1
1.88924	1207.4
1.89076	1257.3
1.89229	1186.4
1.89382	1191.9
1.89535	1223.1
1.89687	1210.5
1.89840	1129.9
1.89993	1163.5
1.90145	1141.1
1.90298	1154.0
1.90451	1197.2
1.90604	1151.0
1.90756	1136.8
1.90909	1155.6
1.91062	1125.2
1.91215	1150.6
1.91367	1107.7
1.91520	1121.2
1.91673	1108.1
1.91825	1116.1
1.91978	1111.7
1.92131	1077.6
1.92284	1080.6
1.92436	1075.9
1.92589	1077.9
1.92742	1058.8
1.92895	1086.9
1.93047	1062.5
1.93200	1072.9
1.93353	1038.6
1.93505	1069.0
1.93658	1066.3
1.93811	1027.8
1.93964	1021.5
1.94116	1013.5
1.94269	992.7
1.94422	1029.0
1.94575	1050.4
1.94727	1004.5
1.94880	1028.2
1.95033	987.5
1.95185	972.7
1.95338	1000.5
1.95491	1003.2
1.95644	973.6
1.95796	975.7
1.95949	1002.2
1.96102	984.7
1.96255	971.8
1.96407	948.2
1.96560	978.8
1.96713	983.1
1.96865	967.2
1.97018	946.5
1.97171	962.6
1.97324	963.8
1.97476	980.6
1.97629	944.5
1.97782	935.1
1.97935	947.7
1.98087	940.5
1.98240	917.0
1.98393	938.3
1.98545	958.1
1.98698	963.4
1.98851	932.1
1.99004	946.3
1.99156	940.8
1.99309	965.6
1.99462	936.2
1.99615	919.5
1.99767	957.8
